# Step     T (K)     E_KS (eV)    E_tot (eV)   Vol (A^3)    P (kBar)
     1  10123.46    -900.58996    -896.66444    1000.000       3.803
     2  10119.35    -900.58871    -896.66478    1000.000       4.848
     3  10025.50    -900.54264    -896.65510    1000.000       5.622
     4  10066.43    -900.56622    -896.66281    1000.000       5.582
     5  10087.51    -900.57754    -896.66595    1000.000       5.124
     6   9974.78    -900.52761    -896.65974    1000.000       4.704
     7   9914.88    -900.50148    -896.65683    1000.000       4.468
     8  10018.40    -900.54486    -896.66007    1000.000       4.506
     9  10158.17    -900.60486    -896.66588    1000.000       4.858
    10  10142.48    -900.59502    -896.66212    1000.000       5.321
    11  10070.95    -900.56285    -896.65769    1000.000       5.393
    12  10077.01    -900.58144    -896.67393    1000.000       4.672
    13   9927.29    -900.52662    -896.67716    1000.000       3.906
    14   9531.99    -900.36757    -896.67140    1000.000       3.612
    15   8998.24    -900.16115    -896.67195    1000.000       3.890
    16   8275.67    -899.88856    -896.67955    1000.000       4.861
    17   7111.23    -899.44158    -896.68409    1000.000       6.517
    18   5450.63    -898.78267    -896.66910    1000.000       8.251
    19   3878.37    -898.15681    -896.65291    1000.000       9.021
    20   3066.34    -897.85127    -896.66225    1000.000       8.164
    21   3110.16    -897.89757    -896.69156    1000.000       6.272
    22   3696.24    -898.15902    -896.72575    1000.000       4.469
    23   4442.93    -898.45535    -896.73254    1000.000       3.065
    24   5110.87    -898.71776    -896.73595    1000.000       1.932
    25   5585.90    -898.90460    -896.73859    1000.000       0.938
    26   5812.32    -898.99338    -896.73956    1000.000       0.125
    27   5788.19    -898.98303    -896.73857    1000.000      -0.482
    28   5580.00    -898.89895    -896.73522    1000.000      -0.847
    29   5328.13    -898.79629    -896.73023    1000.000      -0.959
    30   5198.72    -898.74487    -896.72899    1000.000      -0.666
    31   5186.92    -898.74984    -896.73853    1000.000       0.121
    32   4982.84    -898.67903    -896.74686    1000.000       1.530
    33   4425.74    -898.44374    -896.72759    1000.000       3.047
    34   4139.75    -898.31070    -896.70545    1000.000       3.371
    35   4787.65    -898.57124    -896.71476    1000.000       2.128
    36   6259.32    -899.14312    -896.71597    1000.000       0.385
    37   8398.53    -899.97967    -896.72301    1000.000      -0.700
    38  10866.24    -900.99236    -896.77881    1000.000      -0.155
    39  10891.88    -901.25238    -897.02889    1000.000       4.254
    40   5735.63    -898.50539    -896.28131    1000.000      13.350
    41  10617.33    -901.35759    -897.24056    1000.000       3.150
    42  13370.87    -902.20313    -897.01837    1000.000      -0.556
    43  12067.38    -901.62544    -896.94613    1000.000      -0.649
    44  10044.44    -900.80925    -896.91437    1000.000      -1.030
    45   8311.05    -900.13793    -896.91520    1000.000      -2.347
    46   6932.76    -899.61609    -896.92780    1000.000      -4.299
    47   5686.47    -899.12237    -896.91736    1000.000      -5.924
    48   4863.49    -898.79132    -896.90543    1000.000      -7.002
    49   4906.97    -898.80058    -896.89783    1000.000      -7.513
    50   6066.29    -899.25057    -896.89827    1000.000      -7.211
    51   8074.21    -900.07438    -896.94348    1000.000      -5.475
    52   8645.56    -900.49282    -897.14037    1000.000      -0.534
    53   4701.12    -898.54554    -896.72261    1000.000       8.673
    54   7922.55    -900.39530    -897.32322    1000.000       3.464
    55  11346.21    -901.60409    -897.20443    1000.000      -0.271
    56  10439.58    -901.12016    -897.07206    1000.000      -0.265
    57   9240.99    -900.67010    -897.08677    1000.000      -2.335
    58   8128.55    -900.25457    -897.10261    1000.000      -4.787
    59   6742.30    -899.69943    -897.08500    1000.000      -6.439
    60   5553.31    -899.22396    -897.07058    1000.000      -7.452
    61   5085.03    -899.03509    -897.06329    1000.000      -7.928
    62   5611.28    -899.23606    -897.06020    1000.000      -7.685
    63   7178.20    -899.85104    -897.06759    1000.000      -6.499
    64   9345.25    -900.73989    -897.11612    1000.000      -3.708
    65   9892.05    -901.12453    -897.28874    1000.000       2.292
    66   5525.61    -899.16010    -897.01746    1000.000      12.557
    67   6111.76    -899.73067    -897.36074    1000.000      11.232
    68   7998.19    -900.40290    -897.30148    1000.000       8.056
    69   6494.04    -899.65223    -897.13407    1000.000       7.791
    70   6231.37    -899.59200    -897.17570    1000.000       4.469
    71   6686.51    -899.80682    -897.21403    1000.000       0.757
    72   6400.33    -899.67384    -897.19201    1000.000      -1.629
    73   5709.45    -899.38313    -897.16921    1000.000      -3.155
    74   5335.29    -899.22843    -897.15959    1000.000      -4.156
    75   5628.25    -899.34253    -897.16009    1000.000      -4.636
    76   6641.80    -899.73730    -897.16184    1000.000      -4.549
    77   8347.44    -900.40176    -897.16491    1000.000      -3.797
    78  10565.65    -901.28675    -897.18976    1000.000      -1.940
    79  12017.82    -901.97287    -897.31278    1000.000       2.094
    80   9063.47    -900.84215    -897.32766    1000.000      10.065
    81   7943.50    -900.11741    -897.03720    1000.000      11.729
    82  11556.79    -901.76147    -897.28015    1000.000       4.604
    83  10268.59    -901.09362    -897.11182    1000.000       4.069
    84   7655.61    -900.00476    -897.03619    1000.000       3.884
    85   6401.88    -899.53015    -897.04772    1000.000       2.285
    86   6401.77    -899.57300    -897.09062    1000.000       0.061
    87   6525.83    -899.62388    -897.09340    1000.000      -1.509
    88   6561.21    -899.63181    -897.08760    1000.000      -2.680
    89   6733.32    -899.69160    -897.08065    1000.000      -3.577
    90   7313.55    -899.90934    -897.07341    1000.000      -4.129
    91   8565.27    -900.39081    -897.06950    1000.000      -4.145
    92  10570.11    -901.18577    -897.08705    1000.000      -3.172
    93  12360.14    -901.99052    -897.19769    1000.000      -0.080
    94  10287.03    -901.27038    -897.28143    1000.000       7.237
    95   9157.62    -900.37162    -896.82062    1000.000      10.548
    96  13159.17    -902.28770    -897.18503    1000.000       3.938
    97  11511.89    -901.45996    -896.99605    1000.000       4.793
    98   7819.52    -899.93344    -896.90130    1000.000       5.413
    99   5466.09    -899.02513    -896.90557    1000.000       3.639
   100   4648.73    -898.74458    -896.94196    1000.000       0.719
   101   4202.32    -898.58153    -896.95202    1000.000      -1.941
   102   3608.50    -898.34428    -896.94503    1000.000      -4.050
   103   3032.00    -898.10992    -896.93422    1000.000      -5.642
   104   2850.53    -898.03083    -896.92549    1000.000      -6.774
   105   3419.01    -898.24477    -896.91900    1000.000      -7.425
   106   5020.66    -898.86232    -896.91549    1000.000      -7.490
   107   7796.44    -899.94678    -896.92359    1000.000      -6.662
   108  11316.20    -901.36909    -896.98106    1000.000      -4.108
   109  12965.59    -902.21826    -897.19066    1000.000       2.052
   110   7844.83    -899.98682    -896.94487    1000.000      13.526
   111   8549.23    -900.54943    -897.23433    1000.000       9.716
   112  12371.20    -902.05212    -897.25500    1000.000       0.462
   113  10174.93    -901.03745    -897.09197    1000.000      -2.325
   114   6611.50    -899.60920    -897.04549    1000.000      -4.704
   115   3785.29    -898.50595    -897.03814    1000.000      -6.527
   116   2094.24    -897.85126    -897.03918    1000.000      -7.642
   117   1511.69    -897.62612    -897.03994    1000.000      -8.144
   118   1986.61    -897.81037    -897.04003    1000.000      -8.118
   119   3510.47    -898.40385    -897.04261    1000.000      -7.462
   120   5946.38    -899.36742    -897.06162    1000.000      -5.786
   121   8488.97    -900.40863    -897.11691    1000.000      -2.054
   122  10035.30    -900.97127    -897.07993    1000.000       4.175
   123  10725.68    -901.48410    -897.32506    1000.000       9.266
   124   8534.42    -900.04208    -896.73273    1000.000      14.050
   125  12336.84    -902.23616    -897.45236    1000.000       4.064
   126  12579.61    -902.09569    -897.21776    1000.000      -0.018
   127   9511.02    -900.81765    -897.12961    1000.000      -1.174
   128   6727.49    -899.72998    -897.12129    1000.000      -2.105
   129   4806.86    -898.99056    -897.12662    1000.000      -2.329
   130   3598.89    -898.52597    -897.13045    1000.000      -1.965
   131   2975.27    -898.28376    -897.13006    1000.000      -1.150
   132   2971.67    -898.27745    -897.12514    1000.000      -0.026
   133   3776.33    -898.58569    -897.12136    1000.000       1.370
   134   5441.23    -899.25382    -897.14390    1000.000       3.412
   135   6931.55    -899.92970    -897.24188    1000.000       7.003
   136   6044.59    -899.50133    -897.15745    1000.000      12.918
   137   8614.74    -900.45380    -897.11331    1000.000      11.959
   138  14228.86    -902.87005    -897.35259    1000.000       6.742
   139  12726.00    -902.34925    -897.41455    1000.000       9.854
   140   8164.75    -899.82491    -896.65890    1000.000      13.205
   141  10921.49    -901.48950    -897.25453    1000.000       2.213
   142  10185.41    -901.00553    -897.05599    1000.000      -1.864
   143   7624.85    -899.95759    -897.00094    1000.000      -4.240
   144   5793.61    -899.24026    -896.99370    1000.000      -6.215
   145   5137.36    -898.98647    -896.99438    1000.000      -7.388
   146   5627.73    -899.18446    -897.00222    1000.000      -7.617
   147   6855.41    -899.70206    -897.04377    1000.000      -6.481
   148   6989.77    -899.88375    -897.17337    1000.000      -2.656
   149   4343.61    -898.56236    -896.87806    1000.000       3.931
   150   7258.43    -900.00162    -897.18706    1000.000       0.359
   151  11714.85    -901.76087    -897.21827    1000.000      -3.148
   152  11008.01    -901.57705    -897.30854    1000.000      -0.031
   153   4688.98    -898.73656    -896.91834    1000.000       7.218
   154   5209.43    -899.44157    -897.42154    1000.000       0.656
   155   7379.73    -900.19276    -897.33116    1000.000      -5.837
   156   5871.15    -899.49875    -897.22213    1000.000      -7.362
   157   4408.63    -898.91019    -897.20068    1000.000      -8.678
   158   4134.95    -898.80378    -897.20039    1000.000      -9.290
   159   5069.06    -899.18206    -897.21646    1000.000      -8.822
   160   6439.73    -899.77994    -897.28284    1000.000      -6.602
   161   5940.41    -899.66691    -897.36343    1000.000      -1.415
   162   4970.45    -898.91029    -896.98292    1000.000       3.047
   163   9018.86    -900.85369    -897.35650    1000.000      -1.840
   164  11687.88    -901.82461    -897.29246    1000.000      -2.908
   165  10823.20    -901.60015    -897.40329    1000.000       0.300
   166   5262.32    -899.15945    -897.11891    1000.000       7.489
   167   5634.09    -899.64720    -897.46249    1000.000       2.805
   168   8407.04    -900.69336    -897.43340    1000.000      -3.381
   169   7436.26    -900.20066    -897.31714    1000.000      -4.185
   170   6271.11    -899.72627    -897.29455    1000.000      -4.545
   171   6013.54    -899.63474    -897.30290    1000.000      -3.971
   172   6381.92    -899.80827    -897.33358    1000.000      -1.965
   173   6161.83    -899.79486    -897.40552    1000.000       2.031
   174   4064.83    -898.87618    -897.29998    1000.000       7.849
   175   5208.95    -899.30473    -897.28488    1000.000       7.388
   176   9280.17    -901.03622    -897.43769    1000.000       2.514
   177  10614.95    -901.45070    -897.33459    1000.000       1.831
   178  10870.95    -901.55871    -897.34334    1000.000       2.814
   179   9373.27    -901.15493    -897.52031    1000.000       6.698
   180   4148.06    -898.68784    -897.07937    1000.000      13.837
   181   5800.20    -899.88502    -897.63591    1000.000       7.291
   182   7664.93    -900.48950    -897.51730    1000.000       2.263
   183   6353.53    -899.89357    -897.42989    1000.000       0.716
   184   5005.61    -899.35816    -897.41716    1000.000      -0.968
   185   4380.60    -899.11610    -897.41745    1000.000      -2.255
   186   4535.75    -899.17626    -897.41746    1000.000      -3.156
   187   5459.62    -899.54189    -897.42484    1000.000      -3.423
   188   6679.33    -900.07468    -897.48468    1000.000      -2.353
   189   5923.33    -899.90003    -897.60316    1000.000       1.870
   190   4236.68    -898.76827    -897.12543    1000.000       6.646
   191   9035.59    -901.11789    -897.61420    1000.000       0.835
   192  11470.14    -902.05141    -897.60369    1000.000       0.868
   193   7470.44    -900.49656    -897.59978    1000.000       6.479
   194   4671.13    -899.00695    -897.19565    1000.000       6.994
   195   8016.11    -900.61750    -897.50914    1000.000      -2.399
   196   7181.16    -900.12858    -897.34397    1000.000      -4.937
   197   4973.14    -899.23137    -897.30296    1000.000      -6.662
   198   3359.19    -898.60130    -897.29872    1000.000      -8.064
   199   2637.69    -898.32189    -897.29909    1000.000      -8.933
   200   2806.06    -898.38613    -897.29804    1000.000      -9.300
